# HSC/hsc_r.txt   +atm  lambda_c= 6.2180e+03  AB-Vega= 0.100
# including detector effects, telescope effects, and sky transmission, from A. Goulding
    1   5.00000e+03   3.83068e-04
    2   5.01000e+03   3.83068e-04
    3   5.02000e+03   3.83068e-04
    4   5.03000e+03   1.91534e-04
    5   5.04000e+03   0.00000e+00
    6   5.05000e+03   0.00000e+00
    7   5.06000e+03   0.00000e+00
    8   5.07000e+03   1.91534e-04
    9   5.08000e+03   3.83068e-04
   10   5.09000e+03   1.91534e-04
   11   5.10000e+03   1.91534e-04
   12   5.11000e+03   1.91534e-04
   13   5.12000e+03   3.83068e-04
   14   5.13000e+03   3.83068e-04
   15   5.14000e+03   3.83068e-04
   16   5.15000e+03   1.91534e-04
   17   5.16000e+03   0.00000e+00
   18   5.17000e+03   0.00000e+00
   19   5.18000e+03   0.00000e+00
   20   5.19000e+03   0.00000e+00
   21   5.20000e+03   0.00000e+00
   22   5.21000e+03   0.00000e+00
   23   5.22000e+03   0.00000e+00
   24   5.23000e+03   0.00000e+00
   25   5.24000e+03   1.91534e-04
   26   5.25000e+03   1.91534e-04
   27   5.26000e+03   1.91534e-04
   28   5.27000e+03   1.91534e-04
   29   5.28000e+03   3.83068e-04
   30   5.29000e+03   5.74603e-04
   31   5.30000e+03   5.74603e-04
   32   5.31000e+03   7.66137e-04
   33   5.32000e+03   1.14921e-03
   34   5.33000e+03   1.72381e-03
   35   5.34000e+03   2.29841e-03
   36   5.35000e+03   3.44762e-03
   37   5.36000e+03   5.17142e-03
   38   5.37000e+03   8.81057e-03
   39   5.38000e+03   1.37905e-02
   40   5.39000e+03   2.43248e-02
   41   5.40000e+03   3.75407e-02
   42   5.41000e+03   6.20571e-02
   43   5.42000e+03   9.17449e-02
   44   5.43000e+03   1.41161e-01
   45   5.44000e+03   1.97280e-01
   46   5.45000e+03   2.74852e-01
   47   5.46000e+03   3.57403e-01
   48   5.47000e+03   4.47615e-01
   49   5.48000e+03   5.36487e-01
   50   5.49000e+03   6.09845e-01
   51   5.50000e+03   6.76690e-01
   52   5.51000e+03   7.18445e-01
   53   5.52000e+03   7.53687e-01
   54   5.53000e+03   7.73032e-01
   55   5.54000e+03   7.89696e-01
   56   5.55000e+03   8.03486e-01
   57   5.56000e+03   8.17468e-01
   58   5.57000e+03   8.34514e-01
   59   5.58000e+03   8.52519e-01
   60   5.59000e+03   8.71864e-01
   61   5.60000e+03   8.90826e-01
   62   5.61000e+03   9.05957e-01
   63   5.62000e+03   9.19747e-01
   64   5.63000e+03   9.28366e-01
   65   5.64000e+03   9.35645e-01
   66   5.65000e+03   9.40816e-01
   67   5.66000e+03   9.45796e-01
   68   5.67000e+03   9.49435e-01
   69   5.68000e+03   9.52308e-01
   70   5.69000e+03   9.53840e-01
   71   5.70000e+03   9.55756e-01
   72   5.71000e+03   9.56330e-01
   73   5.72000e+03   9.56139e-01
   74   5.73000e+03   9.55373e-01
   75   5.74000e+03   9.54415e-01
   76   5.75000e+03   9.51542e-01
   77   5.76000e+03   9.48860e-01
   78   5.77000e+03   9.45413e-01
   79   5.78000e+03   9.42731e-01
   80   5.79000e+03   9.42157e-01
   81   5.80000e+03   9.43114e-01
   82   5.81000e+03   9.46754e-01
   83   5.82000e+03   9.50776e-01
   84   5.83000e+03   9.56330e-01
   85   5.84000e+03   9.61885e-01
   86   5.85000e+03   9.67439e-01
   87   5.86000e+03   9.72228e-01
   88   5.87000e+03   9.74334e-01
   89   5.88000e+03   9.73951e-01
   90   5.89000e+03   9.67439e-01
   91   5.90000e+03   9.61885e-01
   92   5.91000e+03   9.54415e-01
   93   5.92000e+03   9.43881e-01
   94   5.93000e+03   9.36028e-01
   95   5.94000e+03   9.27792e-01
   96   5.95000e+03   9.23769e-01
   97   5.96000e+03   9.23195e-01
   98   5.97000e+03   9.26834e-01
   99   5.98000e+03   9.32580e-01
  100   5.99000e+03   9.41199e-01
  101   6.00000e+03   9.50393e-01
  102   6.01000e+03   9.59012e-01
  103   6.02000e+03   9.66673e-01
  104   6.03000e+03   9.71653e-01
  105   6.04000e+03   9.75675e-01
  106   6.05000e+03   9.76633e-01
  107   6.06000e+03   9.76824e-01
  108   6.07000e+03   9.75675e-01
  109   6.08000e+03   9.74334e-01
  110   6.09000e+03   9.72802e-01
  111   6.10000e+03   9.71844e-01
  112   6.11000e+03   9.73377e-01
  113   6.12000e+03   9.75675e-01
  114   6.13000e+03   9.79889e-01
  115   6.14000e+03   9.84486e-01
  116   6.15000e+03   9.88508e-01
  117   6.16000e+03   9.91956e-01
  118   6.17000e+03   9.93296e-01
  119   6.18000e+03   9.94254e-01
  120   6.19000e+03   9.93871e-01
  121   6.20000e+03   9.93488e-01
  122   6.21000e+03   9.93679e-01
  123   6.22000e+03   9.94062e-01
  124   6.23000e+03   9.95403e-01
  125   6.24000e+03   9.96935e-01
  126   6.25000e+03   9.98468e-01
  127   6.26000e+03   9.99617e-01
  128   6.27000e+03   9.99425e-01
  129   6.28000e+03   9.75101e-01
  130   6.29000e+03   9.90615e-01
  131   6.30000e+03   9.88700e-01
  132   6.31000e+03   9.95786e-01
  133   6.32000e+03   9.98851e-01
  134   6.33000e+03   1.00000e+00
  135   6.34000e+03   9.99617e-01
  136   6.35000e+03   9.97127e-01
  137   6.36000e+03   9.93871e-01
  138   6.37000e+03   9.89083e-01
  139   6.38000e+03   9.84103e-01
  140   6.39000e+03   9.78357e-01
  141   6.40000e+03   9.72994e-01
  142   6.41000e+03   9.69355e-01
  143   6.42000e+03   9.66673e-01
  144   6.43000e+03   9.67822e-01
  145   6.44000e+03   9.70312e-01
  146   6.45000e+03   9.74526e-01
  147   6.46000e+03   9.78548e-01
  148   6.47000e+03   9.81038e-01
  149   6.48000e+03   9.82570e-01
  150   6.49000e+03   9.83145e-01
  151   6.50000e+03   9.84103e-01
  152   6.51000e+03   9.79123e-01
  153   6.52000e+03   9.70121e-01
  154   6.53000e+03   9.62842e-01
  155   6.54000e+03   9.53266e-01
  156   6.55000e+03   9.42348e-01
  157   6.56000e+03   9.35070e-01
  158   6.57000e+03   9.30665e-01
  159   6.58000e+03   9.28175e-01
  160   6.59000e+03   9.30473e-01
  161   6.60000e+03   9.33921e-01
  162   6.61000e+03   9.40816e-01
  163   6.62000e+03   9.48286e-01
  164   6.63000e+03   9.55947e-01
  165   6.64000e+03   9.63225e-01
  166   6.65000e+03   9.66673e-01
  167   6.66000e+03   9.68972e-01
  168   6.67000e+03   9.68205e-01
  169   6.68000e+03   9.66673e-01
  170   6.69000e+03   9.65715e-01
  171   6.70000e+03   9.64758e-01
  172   6.71000e+03   9.65524e-01
  173   6.72000e+03   9.66865e-01
  174   6.73000e+03   9.70695e-01
  175   6.74000e+03   9.74717e-01
  176   6.75000e+03   9.78548e-01
  177   6.76000e+03   9.81804e-01
  178   6.77000e+03   9.81804e-01
  179   6.78000e+03   9.81038e-01
  180   6.79000e+03   9.77208e-01
  181   6.80000e+03   9.72802e-01
  182   6.81000e+03   9.67248e-01
  183   6.82000e+03   9.61885e-01
  184   6.83000e+03   9.58629e-01
  185   6.84000e+03   9.55947e-01
  186   6.85000e+03   9.54606e-01
  187   6.86000e+03   9.52883e-01
  188   6.87000e+03   7.89696e-01
  189   6.88000e+03   8.41027e-01
  190   6.89000e+03   8.40069e-01
  191   6.90000e+03   8.45049e-01
  192   6.91000e+03   8.46007e-01
  193   6.92000e+03   8.35664e-01
  194   6.93000e+03   7.97740e-01
  195   6.94000e+03   7.47750e-01
  196   6.95000e+03   6.80904e-01
  197   6.96000e+03   6.03716e-01
  198   6.97000e+03   5.21739e-01
  199   6.98000e+03   4.34591e-01
  200   6.99000e+03   3.49550e-01
  201   7.00000e+03   2.69297e-01
  202   7.01000e+03   2.03792e-01
  203   7.02000e+03   1.43842e-01
  204   7.03000e+03   1.02279e-01
  205   7.04000e+03   6.62708e-02
  206   7.05000e+03   4.48190e-02
  207   7.06000e+03   2.71979e-02
  208   7.07000e+03   1.76211e-02
  209   7.08000e+03   1.01513e-02
  210   7.09000e+03   6.51216e-03
  211   7.10000e+03   3.63915e-03
  212   7.11000e+03   2.48994e-03
  213   7.12000e+03   1.72381e-03
  214   7.13000e+03   1.34074e-03
  215   7.14000e+03   9.57671e-04
  216   7.15000e+03   5.74603e-04
  217   7.16000e+03   3.83068e-04
  218   7.17000e+03   1.91534e-04
  219   7.18000e+03   0.00000e+00
  220   7.19000e+03   1.91534e-04
  221   7.20000e+03   1.91534e-04
  222   7.21000e+03   1.91534e-04
  223   7.22000e+03   1.91534e-04
  224   7.23000e+03   1.91534e-04
  225   7.24000e+03   1.91534e-04
  226   7.25000e+03   1.91534e-04
  227   7.26000e+03   3.83068e-04
  228   7.27000e+03   3.83068e-04
  229   7.28000e+03   3.83068e-04
  230   7.29000e+03   5.74603e-04
  231   7.30000e+03   5.74603e-04
  232   7.31000e+03   9.57671e-04
  233   7.32000e+03   1.14921e-03
  234   7.33000e+03   1.34074e-03
  235   7.34000e+03   1.53227e-03
  236   7.35000e+03   1.53227e-03
  237   7.36000e+03   1.34074e-03
  238   7.37000e+03   1.34074e-03
  239   7.38000e+03   1.53227e-03
  240   7.39000e+03   1.72381e-03
  241   7.40000e+03   1.91534e-03
  242   7.41000e+03   1.91534e-03
  243   7.42000e+03   1.72381e-03
  244   7.43000e+03   1.53227e-03
  245   7.44000e+03   1.34074e-03
  246   7.45000e+03   1.14921e-03
  247   7.46000e+03   1.14921e-03
  248   7.47000e+03   1.34074e-03
  249   7.48000e+03   1.72381e-03
  250   7.49000e+03   1.91534e-03
  251   7.50000e+03   2.10688e-03
